This spectrum was collected on:	2017-09-29	10:42:50
Integration Time:	5	ms
--------------
Fit Parameters
--------------
Center:	7.583e-07	m
FWHM:	3.10e-08	m
-------------
Spectrum Data
-------------
Wavelength (m)	Raw Signal	Blank Signal
7e-07	254.464349895	137.331048703
7.001e-07	308.839175735	114.371456612
7.002e-07	302.00034164	106.90815505
7.003e-07	273.399071404	154.693317623
7.004e-07	265.586851539	129.778422903
7.005e-07	307.197361426	185.771449938
7.006e-07	299.780987521	157.680322528
7.007e-07	319.038960186	140.150329458
7.008e-07	309.379614817	183.342324223
7.009e-07	295.588086044	133.669447941
7.01e-07	297.536140064	175.320082679
7.011e-07	301.310852079	192.929791398
7.012e-07	288.047037368	208.18563036
7.013e-07	305.931708151	141.79741797
7.014e-07	353.8776614	149.008058733
7.015e-07	305.523036345	155.198857024
7.016e-07	350.814438574	187.959971275
7.017e-07	315.818233739	201.37423684
7.018e-07	350.640395348	184.347962971
7.019e-07	307.08469139	119.066005549
7.02e-07	328.148455233	151.683178193
7.021e-07	319.351696763	154.251866161
7.022e-07	338.290507782	174.945508994
7.023e-07	331.082727135	159.041218832
7.024e-07	338.21003896	197.233747999
7.025e-07	369.172048987	145.658297365
7.026e-07	341.043063807	139.580073409
7.027e-07	368.203198903	143.811978543
7.028e-07	311.569009424	189.392435153
7.029e-07	295.075836684	142.884954711
7.03e-07	297.770050517	145.835755889
7.031e-07	288.435521928	132.03781936
7.032e-07	344.197896964	141.43910912
7.033e-07	316.406726738	181.836405281
7.034e-07	310.952135414	137.675885448
7.035e-07	300.797291991	171.811671533
7.036e-07	360.516734134	205.073824279
7.037e-07	315.132517794	162.778406394
7.038e-07	389.688352027	148.982337404
7.039e-07	363.442857907	157.373118359
7.04e-07	357.837085832	200.207745035
7.041e-07	340.630098085	170.979113717
7.042e-07	395.118144618	179.721817332
7.043e-07	405.508277653	139.249381623
7.044e-07	405.820616648	222.003935691
7.045e-07	318.226431471	231.148844115
7.046e-07	380.275632288	191.043582925
7.047e-07	376.449813065	205.152114851
7.048e-07	382.277331736	226.249010934
7.049e-07	381.477217143	226.672200833
7.05e-07	358.948910323	219.926262019
7.051e-07	377.621452461	246.220819313
7.052e-07	408.094126462	195.949088928
7.053e-07	384.293521044	179.192821513
7.054e-07	386.902560496	161.86918542
7.055e-07	372.812656255	214.405010253
7.056e-07	373.449370448	225.096275982
7.057e-07	395.422884958	252.50083208
7.058e-07	340.746184019	155.495841703
7.059e-07	417.33541441	235.630272
7.06e-07	400.512704552	209.397111615
7.061e-07	347.366046911	167.909769838
7.062e-07	375.136882416	194.856022151
7.063e-07	408.611397814	197.044104097
7.064e-07	362.301027289	171.445535301
7.065e-07	351.471401687	188.016385926
7.066e-07	357.455004866	178.321518281
7.067e-07	374.29437777	225.543095639
7.068e-07	368.293065065	251.169575906
7.069e-07	424.953419787	180.116843997
7.07e-07	450.438463251	235.746844193
7.071e-07	412.240888686	169.915153114
7.072e-07	420.579352887	192.299219258
7.073e-07	462.810845173	207.971578331
7.074e-07	429.011647545	187.565610162
7.075e-07	377.114145046	176.008574636
7.076e-07	457.48890083	186.457704765
7.077e-07	436.262242396	255.162454344
7.078e-07	437.83371231	254.544678077
7.079e-07	419.83926751	259.583476651
7.08e-07	415.499744056	202.382021372
7.081e-07	386.788544122	179.701729862
7.082e-07	439.66197068	210.576517054
7.083e-07	403.071432047	238.954611643
7.084e-07	464.99606107	207.089776445
7.085e-07	402.37944459	216.124198656
7.086e-07	441.291534802	264.725228018
7.087e-07	448.841905283	278.043824948
7.088e-07	484.39917972	205.113383242
7.089e-07	447.028603811	217.283391822
7.09e-07	463.769070404	272.194307765
7.091e-07	464.696017979	241.228561092
7.092e-07	501.352975786	224.840210087
7.093e-07	415.395250494	275.034185372
7.094e-07	416.165562631	284.131181041
7.095e-07	474.570265832	211.697299174
7.096e-07	499.512314331	265.372263617
7.097e-07	440.147119687	230.496491273
7.098e-07	447.292466686	261.948958273
7.099e-07	460.696179901	226.729514753
7.1e-07	458.424156037	245.214384186
7.101e-07	437.023487206	254.872454719
7.102e-07	474.705326034	254.697125427
7.103e-07	478.933918544	298.510771784
7.104e-07	530.313193059	242.309395272
7.105e-07	522.543672534	284.725754509
7.106e-07	480.221722086	224.000469138
7.107e-07	543.26117313	211.675215359
7.108e-07	518.179934922	227.823452047
7.109e-07	540.689789365	273.623071117
7.11e-07	489.933370789	282.712230506
7.111e-07	521.851018464	228.132121777
7.112e-07	511.195326121	272.163929042
7.113e-07	479.024199277	302.255404896
7.114e-07	547.37102558	282.517547702
7.115e-07	538.546588622	302.058960957
7.116e-07	547.709413641	294.107765651
7.117e-07	559.6745163	242.321519634
7.118e-07	514.350266539	291.757401984
7.119e-07	569.026374841	326.211554004
7.12e-07	491.682895443	283.990529278
7.121e-07	538.991916958	271.988442985
7.122e-07	546.024381254	259.744832889
7.123e-07	534.936112241	254.160530429
7.124e-07	527.724680248	318.227472084
7.125e-07	532.620893332	319.47085601
7.126e-07	560.21814132	263.351601052
7.127e-07	528.843074579	330.353003562
7.128e-07	569.874598733	297.482973292
7.129e-07	542.938698411	267.732382015
7.13e-07	555.418253139	261.553766244
7.131e-07	589.865581606	287.230047763
7.132e-07	551.372154627	262.241242669
7.133e-07	591.3502741	270.374179117
7.134e-07	592.042548833	276.754755366
7.135e-07	603.848915272	340.512746383
7.136e-07	534.661827628	349.880023515
7.137e-07	581.066547206	275.656794387
7.138e-07	619.926864993	318.061884058
7.139e-07	594.714997987	287.494039944
7.14e-07	587.895995	340.54690995
7.141e-07	534.31374017	353.402742343
7.142e-07	610.429408324	359.761605321
7.143e-07	612.121348186	348.24933879
7.144e-07	594.639131796	359.552602429
7.145e-07	630.255913029	280.366432429
7.146e-07	624.08789498	294.161763785
7.147e-07	630.019442812	304.794943661
7.148e-07	565.151061186	305.274454709
7.149e-07	559.226668883	273.799275181
7.15e-07	607.81996228	350.948043703
7.151e-07	616.620669495	363.318490605
7.152e-07	647.11930315	355.260144757
7.153e-07	626.433454415	347.498097859
7.154e-07	659.966147737	330.598852508
7.155e-07	661.939245845	325.809226325
7.156e-07	591.495316117	374.93112829
7.157e-07	613.354982518	322.142759533
7.158e-07	668.082865342	355.597441095
7.159e-07	630.108339636	365.80281638
7.16e-07	646.297208405	343.664739408
7.161e-07	622.214966925	366.036439218
7.162e-07	620.766604608	368.052675421
7.163e-07	663.210879861	369.509151255
7.164e-07	642.636389209	331.890951709
7.165e-07	641.319058269	304.524497875
7.166e-07	659.408828798	334.648052501
7.167e-07	639.550029892	377.166373061
7.168e-07	658.194199327	387.021254321
7.169e-07	665.900570619	375.684294986
7.17e-07	638.849107131	354.575602439
7.171e-07	693.49790365	365.347310028
7.172e-07	652.375218652	316.282747342
7.173e-07	714.031088019	363.42099168
7.174e-07	716.514382588	386.885076414
7.175e-07	671.586915911	391.62972834
7.176e-07	665.38502532	323.217681308
7.177e-07	716.736490407	386.703447695
7.178e-07	686.728953358	335.482798073
7.179e-07	720.407342323	414.815419422
7.18e-07	679.161245714	399.612249743
7.181e-07	685.919211294	420.302706292
7.182e-07	694.380418019	380.378181306
7.183e-07	682.481980819	420.178204942
7.184e-07	723.238764756	405.165056256
7.185e-07	767.54552911	381.866295033
7.186e-07	758.380830382	427.507156244
7.187e-07	744.345058479	359.287679683
7.188e-07	698.173793186	341.98499634
7.189e-07	755.353397213	412.512311786
7.19e-07	734.066352609	373.812915779
7.191e-07	746.323795719	403.461631795
7.192e-07	733.889174841	411.056628387
7.193e-07	722.972493649	359.376845795
7.194e-07	726.306115946	419.408895041
7.195e-07	798.488933148	368.427875328
7.196e-07	760.659733522	407.582223162
7.197e-07	756.200730742	372.038126921
7.198e-07	752.140334749	404.854403558
7.199e-07	724.296484785	459.307916552
7.2e-07	803.848801957	449.04410266
7.201e-07	777.53814196	440.341447963
7.202e-07	771.064343238	384.005207648
7.203e-07	740.007676205	374.796606954
7.204e-07	733.429464934	395.955173315
7.205e-07	747.944143128	389.181506078
7.206e-07	781.099513437	403.781273651
7.207e-07	792.195702858	418.842352486
7.208e-07	798.744299304	420.741094034
7.209e-07	792.835651642	449.255803571
7.21e-07	804.757739576	394.351768504
7.211e-07	800.963049781	406.632195333
7.212e-07	860.779684933	428.567131507
7.213e-07	789.391492435	393.886402343
7.214e-07	841.444003026	490.112518618
7.215e-07	819.91850144	460.015689317
7.216e-07	871.234652195	445.911190171
7.217e-07	832.281390564	419.389458853
7.218e-07	806.532780075	403.995938761
7.219e-07	809.698114182	450.540068966
7.22e-07	797.119654092	435.530868722
7.221e-07	824.455926389	458.696553793
7.222e-07	873.462089427	500.579810332
7.223e-07	846.173740103	444.102596274
7.224e-07	830.805015568	418.782255128
7.225e-07	868.220228824	430.050193874
7.226e-07	814.150946909	442.650964962
7.227e-07	849.769595176	499.285712753
7.228e-07	899.23439174	474.196668784
7.229e-07	889.558558428	434.099587607
7.23e-07	895.867695074	507.578989403
7.231e-07	918.236097635	496.86555198
7.232e-07	924.238936996	451.517106185
7.233e-07	875.680446124	446.932379915
7.234e-07	857.470941203	483.232840751
7.235e-07	866.653181353	492.755004895
7.236e-07	927.47162402	504.944750256
7.237e-07	950.245909002	500.023086714
7.238e-07	941.414438129	508.62285528
7.239e-07	930.754397555	495.920110716
7.24e-07	923.783925979	534.604693879
7.241e-07	962.547361674	513.532796873
7.242e-07	951.39991238	530.333571527
7.243e-07	893.647649916	461.778792491
7.244e-07	912.703690828	479.897492737
7.245e-07	925.720632237	560.207134125
7.246e-07	958.687994795	472.027337258
7.247e-07	970.328564347	523.074538622
7.248e-07	967.452151023	565.11844868
7.249e-07	998.057423051	518.162702547
7.25e-07	949.94080912	553.341778065
7.251e-07	959.4950643	535.469540307
7.252e-07	933.668031675	487.287298859
7.253e-07	985.670240502	584.438972662
7.254e-07	941.161184336	548.962996837
7.255e-07	1002.85368464	515.402720283
7.256e-07	950.753152761	535.498929465
7.257e-07	977.825975922	587.440759193
7.258e-07	995.240591573	547.843387521
7.259e-07	986.09149089	534.060193074
7.26e-07	950.919043682	542.702312598
7.261e-07	974.468248526	565.90733002
7.262e-07	1031.31582744	519.249304223
7.263e-07	1047.25013031	526.412981383
7.264e-07	1058.38029637	580.0716871
7.265e-07	975.564711241	525.716761617
7.266e-07	1053.83582981	591.889020488
7.267e-07	1059.86891275	556.522289245
7.268e-07	1053.20720185	556.002731945
7.269e-07	1073.43916672	604.586923765
7.27e-07	1056.0971814	621.669902432
7.271e-07	1089.72189367	599.734395677
7.272e-07	1068.51911295	616.152643525
7.273e-07	1015.12364443	552.689200075
7.274e-07	1052.27981448	561.448810135
7.275e-07	1067.39500096	563.654014642
7.276e-07	1048.43358406	611.852873443
7.277e-07	1049.05348172	568.126266822
7.278e-07	1039.8507128	630.324417341
7.279e-07	1038.69705622	649.434282815
7.28e-07	1046.36897727	587.79533123
7.281e-07	1080.92985709	596.702996973
7.282e-07	1087.92399021	575.239807266
7.283e-07	1146.32602369	662.221825589
7.284e-07	1065.35819128	650.815857101
7.285e-07	1151.64866954	574.298485236
7.286e-07	1160.71001368	631.978194747
7.287e-07	1093.63578862	590.0935802
7.288e-07	1083.31801626	673.125401874
7.289e-07	1093.95242211	651.707416623
7.29e-07	1110.63223078	594.922510274
7.291e-07	1087.37535251	648.354126214
7.292e-07	1111.75053052	670.111205129
7.293e-07	1141.19670949	597.02798941
7.294e-07	1133.93280652	685.265264964
7.295e-07	1186.06578586	692.586621458
7.296e-07	1165.97454885	651.641152004
7.297e-07	1176.6817244	614.832580959
7.298e-07	1216.77829678	699.404532556
7.299e-07	1170.79148432	676.488405067
7.3e-07	1147.32117005	632.557669287
7.301e-07	1179.40674095	666.547905575
7.302e-07	1162.20798124	709.146855788
7.303e-07	1140.96589776	657.277232218
7.304e-07	1186.78390133	648.395606807
7.305e-07	1172.3594312	652.279249986
7.306e-07	1162.62930775	722.24545393
7.307e-07	1170.96997627	638.505368134
7.308e-07	1192.57162291	680.871546794
7.309e-07	1258.95549023	694.833500171
7.31e-07	1222.51757615	658.423991468
7.311e-07	1252.48726775	691.578807004
7.312e-07	1253.84176376	671.364652125
7.313e-07	1276.35814001	732.435965946
7.314e-07	1264.25620331	672.836831632
7.315e-07	1206.60785205	668.214031978
7.316e-07	1233.09507875	755.00324733
7.317e-07	1305.9032506	683.244795525
7.318e-07	1286.77118753	687.16564579
7.319e-07	1297.61474106	702.178446646
7.32e-07	1251.28928609	693.205588718
7.321e-07	1235.82179132	682.929504726
7.322e-07	1239.42130869	692.63043693
7.323e-07	1266.43556595	767.12510362
7.324e-07	1266.15657746	718.048610918
7.325e-07	1261.92298782	773.737370471
7.326e-07	1294.45522113	743.925395052
7.327e-07	1340.2942224	796.931171342
7.328e-07	1312.56542529	800.450876217
7.329e-07	1288.51571956	801.593198408
7.33e-07	1331.49453206	726.286405885
7.331e-07	1317.08549942	746.386939635
7.332e-07	1339.27190611	737.852449292
7.333e-07	1301.11700787	753.739110204
7.334e-07	1377.69623528	765.399194028
7.335e-07	1310.83486306	779.460219368
7.336e-07	1326.10592169	737.271228203
7.337e-07	1372.13778203	736.399401307
7.338e-07	1326.60342618	745.735436513
7.339e-07	1341.19278488	758.990396782
7.34e-07	1409.75673811	824.740094966
7.341e-07	1418.4135604	838.393890875
7.342e-07	1362.46126268	776.388901639
7.343e-07	1385.53489423	774.23072863
7.344e-07	1346.18211396	833.895374441
7.345e-07	1381.35092691	840.500755935
7.346e-07	1412.79348812	860.978035651
7.347e-07	1390.61117139	826.676634649
7.348e-07	1446.53538318	856.865730241
7.349e-07	1373.18008306	802.312623793
7.35e-07	1422.68452058	779.192841382
7.351e-07	1439.5375475	834.440979138
7.352e-07	1450.76168736	804.184981596
7.353e-07	1483.44592193	862.404737591
7.354e-07	1406.20770166	812.507992275
7.355e-07	1425.35891408	853.271186785
7.356e-07	1438.99925107	822.993474616
7.357e-07	1479.57207337	804.388228193
7.358e-07	1472.89094457	844.9090231
7.359e-07	1465.20564336	860.184192247
7.36e-07	1445.79392979	880.738825117
7.361e-07	1510.20719672	869.393952505
7.362e-07	1455.26502879	842.813248932
7.363e-07	1478.14236995	886.210519879
7.364e-07	1538.35021292	880.78658597
7.365e-07	1504.29351938	901.665904387
7.366e-07	1488.05684174	864.755842097
7.367e-07	1520.08939423	850.889452198
7.368e-07	1529.76633004	911.547397475
7.369e-07	1500.34439024	940.845028388
7.37e-07	1499.3023465	920.304830865
7.371e-07	1560.19130578	920.521148411
7.372e-07	1505.40322471	955.136340756
7.373e-07	1505.33617087	957.739037649
7.374e-07	1531.95952563	877.421967564
7.375e-07	1527.82002674	960.649566854
7.376e-07	1540.23597317	879.17005612
7.377e-07	1529.16420224	881.656404362
7.378e-07	1523.52089009	939.566198905
7.379e-07	1615.95986301	962.77866817
7.38e-07	1571.39084444	924.899094422
7.381e-07	1592.67766356	967.659336257
7.382e-07	1583.70599479	977.915438615
7.383e-07	1613.22706975	925.81336605
7.384e-07	1562.15670309	999.004510471
7.385e-07	1634.4752464	963.370840708
7.386e-07	1587.73700163	960.044571388
7.387e-07	1592.36927488	1005.19214055
7.388e-07	1648.13124011	984.433823757
7.389e-07	1664.50566634	999.826139695
7.39e-07	1667.65014214	984.479288562
7.391e-07	1677.43113464	943.681496445
7.392e-07	1641.88182504	1016.17522237
7.393e-07	1637.33140793	980.092519842
7.394e-07	1666.65609335	1009.36831131
7.395e-07	1618.64503272	1003.57485694
7.396e-07	1711.45376252	983.635027111
7.397e-07	1666.8380672	989.615794554
7.398e-07	1663.35880197	1050.88115716
7.399e-07	1717.13200127	1036.0901094
7.4e-07	1721.96084698	1012.09470934
7.401e-07	1725.88848829	1046.65089286
7.402e-07	1704.74878795	1061.59743885
7.403e-07	1725.66335868	1073.52517657
7.404e-07	1673.73382022	1052.1630738
7.405e-07	1709.81982207	996.58204324
7.406e-07	1729.23911477	992.282861154
7.407e-07	1691.40971583	1081.44069837
7.408e-07	1726.44305168	1004.55868609
7.409e-07	1761.23175364	1040.07351955
7.41e-07	1720.58785722	1018.11732928
7.411e-07	1752.57556888	1052.75775388
7.412e-07	1810.64133351	1024.68764087
7.413e-07	1803.73802174	1092.52555479
7.414e-07	1748.98268212	1053.02633523
7.415e-07	1822.23452051	1038.8234279
7.416e-07	1824.63523996	1100.00401606
7.417e-07	1830.69696204	1123.00974073
7.418e-07	1799.7775335	1066.13439819
7.419e-07	1819.79613226	1093.8719012
7.42e-07	1780.90087733	1049.31859616
7.421e-07	1813.22569596	1138.77060936
7.422e-07	1798.74916433	1122.76382688
7.423e-07	1821.80488466	1118.31594965
7.424e-07	1804.20226107	1084.53381975
7.425e-07	1790.64172568	1125.04330144
7.426e-07	1836.62820531	1130.33757236
7.427e-07	1892.18419903	1100.37258039
7.428e-07	1841.10172791	1153.06599576
7.429e-07	1840.78292183	1132.55635024
7.43e-07	1862.01186203	1143.3067949
7.431e-07	1827.48838344	1124.33380303
7.432e-07	1833.79413961	1122.36620768
7.433e-07	1837.40838808	1166.79134513
7.434e-07	1893.41995674	1128.19456106
7.435e-07	1848.90642048	1127.692733
7.436e-07	1936.84899749	1199.19892627
7.437e-07	1893.19416234	1179.25360845
7.438e-07	1927.27040421	1188.84865141
7.439e-07	1965.10097137	1138.33406682
7.44e-07	1882.67389172	1216.1053433
7.441e-07	1902.79568538	1206.87030816
7.442e-07	1967.01409013	1157.72326538
7.443e-07	1901.97209623	1223.14015065
7.444e-07	1944.52271298	1177.83124338
7.445e-07	1970.17759937	1185.70975842
7.446e-07	2006.91334283	1207.50272032
7.447e-07	1967.43840729	1171.34129022
7.448e-07	1935.99374421	1180.55818954
7.449e-07	1932.85938369	1258.05607426
7.45e-07	1932.07200026	1271.18863097
7.451e-07	1993.41668024	1260.48746687
7.452e-07	2031.03175216	1286.108281
7.453e-07	1996.15291822	1211.48184868
7.454e-07	2035.81551168	1253.53507621
7.455e-07	2037.23315781	1283.11757522
7.456e-07	1987.65612286	1242.18775357
7.457e-07	2042.45920527	1309.88303601
7.458e-07	2030.41696671	1217.38893028
7.459e-07	2050.65721779	1221.01374867
7.46e-07	2057.29282012	1261.74197778
7.461e-07	2031.49790019	1324.83960614
7.462e-07	2021.66975414	1263.36810042
7.463e-07	2018.09179492	1319.23402184
7.464e-07	2049.51979629	1264.6604251
7.465e-07	2101.84248892	1318.17090322
7.466e-07	2095.94633524	1310.52030776
7.467e-07	2050.27222377	1292.95030122
7.468e-07	2066.44460697	1265.22550752
7.469e-07	2104.12138657	1333.31418748
7.47e-07	2078.74922337	1288.06690307
7.471e-07	2137.41218329	1359.64908424
7.472e-07	2152.42753713	1294.52836409
7.473e-07	2159.21827393	1336.3883828
7.474e-07	2143.19427975	1310.17487439
7.475e-07	2150.38424091	1308.67994994
7.476e-07	2185.89948949	1355.58005254
7.477e-07	2173.00117387	1372.65299376
7.478e-07	2122.63699406	1367.99362253
7.479e-07	2193.15887432	1387.44571553
7.48e-07	2210.07042434	1413.49550011
7.481e-07	2150.08074881	1354.34582347
7.482e-07	2148.21271929	1359.69816987
7.483e-07	2145.14555259	1396.5918571
7.484e-07	2135.35214981	1364.59739486
7.485e-07	2144.01240482	1351.34221599
7.486e-07	2213.52098884	1428.4352972
7.487e-07	2224.92419063	1448.80495447
7.488e-07	2227.37842022	1430.19343364
7.489e-07	2166.89548516	1384.6215339
7.49e-07	2217.3529889	1428.49812841
7.491e-07	2217.41397272	1432.63552481
7.492e-07	2183.93104665	1429.79190412
7.493e-07	2271.86161859	1426.362116
7.494e-07	2290.6405433	1405.18874313
7.495e-07	2299.92268523	1400.80487602
7.496e-07	2304.29864667	1454.38442982
7.497e-07	2302.74551259	1485.78777019
7.498e-07	2224.75174573	1498.73652516
7.499e-07	2263.2646779	1467.50597069
7.5e-07	2255.27489075	1450.51027052
7.501e-07	2259.82159833	1435.33999766
7.502e-07	2273.13655008	1505.9992419
7.503e-07	2256.02177426	1455.674566
7.504e-07	2314.00321905	1523.48763889
7.505e-07	2344.37223899	1511.43849163
7.506e-07	2346.50432473	1460.53055257
7.507e-07	2334.83365574	1533.06075992
7.508e-07	2323.41117844	1455.78822332
7.509e-07	2372.27586943	1489.18201614
7.51e-07	2322.98185092	1488.67364654
7.511e-07	2323.75669756	1557.28492579
7.512e-07	2316.67164373	1490.21432115
7.513e-07	2349.13295273	1506.90481627
7.514e-07	2388.08917178	1515.38273276
7.515e-07	2387.56388471	1534.56765114
7.516e-07	2397.65759272	1581.16963087
7.517e-07	2332.76377128	1499.06654925
7.518e-07	2365.77090013	1567.48103169
7.519e-07	2357.7857016	1584.35011356
7.52e-07	2443.61076576	1606.2940927
7.521e-07	2433.01613058	1581.9306809
7.522e-07	2431.72105344	1547.90145773
7.523e-07	2370.46209357	1623.07433509
7.524e-07	2432.32335684	1631.55717941
7.525e-07	2414.5584986	1540.5318453
7.526e-07	2401.90434039	1615.87037069
7.527e-07	2478.40629212	1554.17315262
7.528e-07	2422.66953594	1619.69141111
7.529e-07	2420.11582664	1569.70948996
7.53e-07	2428.30194587	1644.82194147
7.531e-07	2437.57257061	1615.50786767
7.532e-07	2456.82038092	1658.60846457
7.533e-07	2500.83170298	1606.4367399
7.534e-07	2527.07872774	1647.5832011
7.535e-07	2477.10837894	1625.89745638
7.536e-07	2477.1660159	1689.1010528
7.537e-07	2540.99311415	1648.44532955
7.538e-07	2478.21580579	1618.50369745
7.539e-07	2485.10168265	1662.31084511
7.54e-07	2533.18540152	1693.69954438
7.541e-07	2517.20843221	1621.07614
7.542e-07	2566.48448916	1707.47294582
7.543e-07	2574.0046376	1670.45545394
7.544e-07	2592.90361819	1696.75303154
7.545e-07	2589.08170436	1695.14736099
7.546e-07	2535.13893496	1741.75046279
7.547e-07	2530.6668219	1675.30189451
7.548e-07	2594.24586207	1752.11705227
7.549e-07	2613.05145442	1689.07122639
7.55e-07	2578.28215542	1749.34379257
7.551e-07	2552.60258343	1675.17038591
7.552e-07	2570.71868543	1708.62070207
7.553e-07	2575.2834072	1704.07628004
7.554e-07	2586.38382064	1725.92349905
7.555e-07	2567.41571414	1757.52943405
7.556e-07	2577.63861543	1698.11316158
7.557e-07	2576.37070391	1729.57126489
7.558e-07	2649.40737112	1771.47188002
7.559e-07	2671.09490101	1728.53970112
7.56e-07	2675.13927966	1748.55797138
7.561e-07	2595.2348751	1753.57857763
7.562e-07	2699.35638439	1822.32252449
7.563e-07	2641.50854984	1763.10404216
7.564e-07	2627.08772619	1813.33028898
7.565e-07	2637.15404395	1798.1536992
7.566e-07	2707.39890307	1774.76469383
7.567e-07	2676.44764157	1841.49853229
7.568e-07	2733.72481035	1816.96798009
7.569e-07	2695.77971053	1839.06620243
7.57e-07	2736.37252794	1774.08143327
7.571e-07	2741.02109373	1787.63934474
7.572e-07	2757.92013989	1818.26821265
7.573e-07	2704.69269508	1875.01346145
7.574e-07	2766.65953824	1860.94352798
7.575e-07	2770.32752473	1812.20865529
7.576e-07	2687.51527861	1805.25347121
7.577e-07	2784.62581876	1819.87353966
7.578e-07	2750.18740332	1892.92155854
7.579e-07	2702.31278462	1828.97289156
7.58e-07	2705.24620195	1877.71261288
7.581e-07	2740.19069292	1828.38344995
7.582e-07	2782.65196021	1885.28295934
7.583e-07	2808.01457408	1904.30870244
7.584e-07	2767.97683191	1935.50390159
7.585e-07	2827.16000496	1937.30814772
7.586e-07	2801.17683075	1892.65102568
7.587e-07	2811.24217464	1864.77899154
7.588e-07	2814.23473013	1949.20263934
7.589e-07	2815.08729378	1874.26048922
7.59e-07	2830.00998741	1938.22666433
7.591e-07	2847.14737528	1893.41237066
7.592e-07	2853.6419496	1982.75170886
7.593e-07	2841.52939398	1902.4542808
7.594e-07	2818.93543421	1969.92793838
7.595e-07	2829.76001479	1965.57176804
7.596e-07	2842.64101788	1909.84453749
7.597e-07	2881.20710209	2004.58681556
7.598e-07	2873.62299862	1944.41224027
7.599e-07	2818.77172258	1996.117171
7.6e-07	2833.86079092	2007.76748462
7.601e-07	2825.64307352	1984.83827743
7.602e-07	2842.61718315	1991.46983651
7.603e-07	2859.65266164	1993.00860561
7.604e-07	2904.8067118	1988.77654462
7.605e-07	2871.92692748	1961.56386811
7.606e-07	2889.34614415	2029.63579851
7.607e-07	2937.56808425	1966.31647189
7.608e-07	2904.42510347	1986.13360069
7.609e-07	2952.73430881	2003.95282222
7.61e-07	2950.81734059	2017.03672137
7.611e-07	2949.30865552	2045.16773322
7.612e-07	2907.28344394	2072.98771349
7.613e-07	2967.57743781	2000.36896986
7.614e-07	2939.66669506	2007.72039122
7.615e-07	2966.06751168	2059.17138773
7.616e-07	3001.30703026	2070.19428871
7.617e-07	2966.94778972	2035.56706412
7.618e-07	3015.66683096	2096.55346661
7.619e-07	2967.77641781	2037.88707527
7.62e-07	2993.95008954	2078.46871067
7.621e-07	2970.44433521	2128.68596773
7.622e-07	3033.88255942	2118.29783031
7.623e-07	2966.94921311	2130.40334829
7.624e-07	2980.48024046	2087.24735976
7.625e-07	3008.53003075	2119.65756565
7.626e-07	3057.98205852	2122.55135467
7.627e-07	3021.15056696	2079.37451034
7.628e-07	2976.81232797	2105.7036063
7.629e-07	3050.52006045	2130.89357928
7.63e-07	3031.77773124	2100.83346869
7.631e-07	3019.30370412	2146.35158618
7.632e-07	3057.29261294	2122.77633663
7.633e-07	3080.7044251	2137.75385326
7.634e-07	3065.40468896	2121.24895381
7.635e-07	3009.57621525	2140.28085318
7.636e-07	3074.8290797	2176.33932442
7.637e-07	3059.80420102	2168.03148495
7.638e-07	3100.60707175	2159.88885538
7.639e-07	3080.92756697	2187.57260628
7.64e-07	3060.46563632	2227.26682138
7.641e-07	3137.15792913	2236.95929699
7.642e-07	3052.99072766	2179.77113707
7.643e-07	3087.66952209	2188.40297381
7.644e-07	3137.70905761	2171.40241265
7.645e-07	3147.05804201	2224.78898295
7.646e-07	3086.97584304	2208.32064082
7.647e-07	3103.94784746	2246.40970111
7.648e-07	3157.11405548	2240.58815536
7.649e-07	3108.9053345	2238.11559597
7.65e-07	3122.55031713	2284.30774877
7.651e-07	3165.39986281	2230.2313704
7.652e-07	3133.05574825	2241.51740785
7.653e-07	3182.45299854	2234.0302998
7.654e-07	3199.46220551	2220.58964606
7.655e-07	3182.36778623	2311.10231702
7.656e-07	3178.13606946	2219.09511385
7.657e-07	3145.2910855	2234.33666466
7.658e-07	3210.49907949	2325.48030803
7.659e-07	3171.32887184	2257.62395635
7.66e-07	3176.90691835	2282.55703028
7.661e-07	3219.14691404	2247.45499114
7.662e-07	3239.42585312	2255.55656095
7.663e-07	3158.63688261	2350.27712702
7.664e-07	3169.12496149	2328.46279813
7.665e-07	3194.16982013	2301.89560678
7.666e-07	3220.35009087	2269.86622669
7.667e-07	3200.46133234	2371.57981266
7.668e-07	3222.31002832	2361.78369002
7.669e-07	3270.03562057	2307.99441526
7.67e-07	3270.0136967	2323.76573546
7.671e-07	3237.14725041	2296.2394615
7.672e-07	3262.46556517	2344.97404675
7.673e-07	3227.49626695	2313.57057188
7.674e-07	3236.17588623	2393.78260398
7.675e-07	3288.83540251	2336.92776177
7.676e-07	3291.79279366	2390.79256154
7.677e-07	3237.81756338	2366.42518739
7.678e-07	3308.57978365	2424.34614068
7.679e-07	3292.30798561	2419.34532333
7.68e-07	3270.28854675	2420.86998916
7.681e-07	3315.10834716	2381.21363172
7.682e-07	3266.40539286	2358.95321477
7.683e-07	3251.65030077	2449.68575832
7.684e-07	3323.41450625	2430.2210213
7.685e-07	3324.65788751	2444.08201912
7.686e-07	3329.17323864	2443.29058184
7.687e-07	3296.32625578	2474.23955729
7.688e-07	3266.70652201	2429.09375415
7.689e-07	3305.88303642	2390.35650653
7.69e-07	3348.25766354	2457.85391177
7.691e-07	3314.94510149	2401.32559522
7.692e-07	3295.24482359	2495.41899599
7.693e-07	3335.65489509	2428.77307271
7.694e-07	3314.94663753	2483.49406414
7.695e-07	3357.8486918	2498.14270386
7.696e-07	3378.09203689	2455.04276888
7.697e-07	3392.57004309	2520.49061232
7.698e-07	3344.92938349	2497.5763581
7.699e-07	3338.41767873	2437.44198798
7.7e-07	3387.52048605	2495.53338776
7.701e-07	3355.9190458	2525.10764322
7.702e-07	3361.95438555	2530.40176445
7.703e-07	3398.38234647	2480.41835832
7.704e-07	3348.12390942	2472.68569035
7.705e-07	3340.01169858	2486.51349279
7.706e-07	3430.30942892	2491.80800888
7.707e-07	3368.10960745	2507.60630031
7.708e-07	3381.51739298	2541.89156721
7.709e-07	3413.73844277	2501.06844462
7.71e-07	3361.54289256	2588.23628445
7.711e-07	3441.54646622	2524.55862682
7.712e-07	3418.48644374	2529.50162715
7.713e-07	3375.13394549	2565.13541134
7.714e-07	3399.93934727	2554.0228839
7.715e-07	3450.84258509	2599.58653981
7.716e-07	3389.4840426	2562.54411964
7.717e-07	3410.03418422	2522.15516962
7.718e-07	3423.25238298	2577.67670772
7.719e-07	3444.05565964	2616.00333278
7.72e-07	3468.05006421	2554.62243968
7.721e-07	3472.14148903	2590.82483082
7.722e-07	3446.98466481	2576.26503865
7.723e-07	3428.4631968	2637.32576525
7.724e-07	3432.89395947	2649.69866583
7.725e-07	3413.01961859	2589.90793611
7.726e-07	3465.17734035	2600.36696944
7.727e-07	3512.38067203	2608.56382882
7.728e-07	3477.45675538	2630.38443767
7.729e-07	3524.07096231	2672.43885921
7.73e-07	3496.06714793	2664.65667001
7.731e-07	3458.69376959	2655.92516967
7.732e-07	3503.79384608	2597.57847585
7.733e-07	3503.02574084	2615.25043186
7.734e-07	3463.75740132	2612.99741398
7.735e-07	3461.99864968	2638.01884545
7.736e-07	3516.88786601	2657.49262413
7.737e-07	3475.67269008	2696.71515491
7.738e-07	3517.48995063	2632.28766421
7.739e-07	3501.70177556	2647.95367863
7.74e-07	3473.47650451	2649.42135802
7.741e-07	3556.76812384	2723.07585423
7.742e-07	3566.36628328	2657.90383864
7.743e-07	3481.1988446	2648.12342889
7.744e-07	3549.54893469	2703.96333432
7.745e-07	3498.08939474	2739.51755768
7.746e-07	3566.19176821	2661.28815617
7.747e-07	3516.74642009	2705.64605188
7.748e-07	3538.10729717	2746.68738336
7.749e-07	3549.10691209	2748.74952925
7.75e-07	3533.78856284	2684.49686558
7.751e-07	3544.22614613	2768.13436207
7.752e-07	3533.70997186	2731.85033603
7.753e-07	3570.32900186	2761.68186704
7.754e-07	3607.85279767	2710.25495741
7.755e-07	3538.92494894	2701.58823079
7.756e-07	3539.95931581	2734.68751231
7.757e-07	3554.65058935	2737.95866936
7.758e-07	3566.01486597	2779.96018646
7.759e-07	3598.19351778	2793.23671375
7.76e-07	3625.044573	2742.34304477
7.761e-07	3621.59415559	2730.72841834
7.762e-07	3560.26359856	2794.73479799
7.763e-07	3598.63563974	2821.12342017
7.764e-07	3605.41988192	2823.02844044
7.765e-07	3561.56705468	2738.61261412
7.766e-07	3604.43583353	2761.18851187
7.767e-07	3571.16050667	2814.34085773
7.768e-07	3577.2346979	2789.8472107
7.769e-07	3633.51877453	2829.59438461
7.77e-07	3604.81414989	2770.02112258
7.771e-07	3627.07986009	2778.38437268
7.772e-07	3569.83074208	2810.51917219
7.773e-07	3654.73557914	2859.46117871
7.774e-07	3571.72502434	2806.5620395
7.775e-07	3646.54481896	2804.80459944
7.776e-07	3650.04674938	2872.42274511
7.777e-07	3644.53931031	2818.45391934
7.778e-07	3663.6284895	2878.58353122
7.779e-07	3662.77194394	2862.82035752
7.78e-07	3622.59961801	2815.43789224
7.781e-07	3633.16755283	2839.01809824
7.782e-07	3628.87071473	2882.8842346
7.783e-07	3604.35831089	2902.70106517
7.784e-07	3596.61846945	2874.8708819
7.785e-07	3686.64313589	2893.9830833
7.786e-07	3619.24002439	2910.11284787
7.787e-07	3605.71287667	2906.5576375
7.788e-07	3695.4384715	2926.34917971
7.789e-07	3651.59583418	2899.13395398
7.79e-07	3660.09908609	2842.41087868
7.791e-07	3706.13987453	2897.61682544
7.792e-07	3657.41222535	2933.11610762
7.793e-07	3661.19254546	2891.05235093
7.794e-07	3679.8867784	2863.48526854
7.795e-07	3650.08077038	2917.76583231
7.796e-07	3645.45576119	2953.0243865
7.797e-07	3701.20748325	2886.51319357
7.798e-07	3714.91363025	2953.96138545
7.799e-07	3723.60279782	2888.97190504
7.8e-07	3628.12473633	2900.26150153
7.801e-07	3642.46862415	2902.08319207
7.802e-07	3668.35168088	2966.72686039
7.803e-07	3702.22299493	2965.68148922
7.804e-07	3733.71215651	2937.43305623
7.805e-07	3732.16649975	2916.98498901
7.806e-07	3677.69190278	2916.84931933
7.807e-07	3663.22665086	2915.70452178
7.808e-07	3699.28901403	2946.22853004
7.809e-07	3662.86068204	2969.82238491
7.81e-07	3687.31641062	3003.74390822
7.811e-07	3732.35297389	2989.10029292
7.812e-07	3722.80462899	2936.69939794
7.813e-07	3713.16115132	2928.88910605
7.814e-07	3720.89322533	3007.74934067
7.815e-07	3677.42985335	2938.91686995
7.816e-07	3746.94953002	2943.28768203
7.817e-07	3719.32446185	3021.34533495
7.818e-07	3702.76226485	3012.24660775
7.819e-07	3758.40580744	3034.7083503
7.82e-07	3703.89181557	2996.59557326
7.821e-07	3686.27085588	2955.78785975
7.822e-07	3709.32186158	2985.97976859
7.823e-07	3735.04273287	2994.22603231
7.824e-07	3736.08757082	3050.59607617
7.825e-07	3693.18669012	3028.94842411
7.826e-07	3752.95475658	3006.8207827
7.827e-07	3714.69915235	3013.20772577
7.828e-07	3681.92258062	2995.04489674
7.829e-07	3735.09886891	3030.74654384
7.83e-07	3737.66301244	3014.05134101
7.831e-07	3725.67794899	3055.05032659
7.832e-07	3719.82272518	3066.97498372
7.833e-07	3698.84713406	2991.98076
7.834e-07	3727.61772619	3075.64060816
7.835e-07	3758.64420562	3071.38449417
7.836e-07	3773.14919541	3010.16508039
7.837e-07	3780.79221821	3084.75989677
7.838e-07	3692.88548084	3011.00002944
7.839e-07	3745.80410171	3053.28029119
7.84e-07	3701.02886039	3079.55263851
7.841e-07	3705.87443464	3043.79815117
7.842e-07	3765.06052479	3039.69616086
7.843e-07	3699.03236105	3020.53706095
7.844e-07	3693.49436313	3030.16418996
7.845e-07	3729.82152812	3039.84149695
7.846e-07	3717.33051382	3098.48346571
7.847e-07	3751.92082517	3123.11485958
7.848e-07	3762.17496718	3073.98762727
7.849e-07	3694.58779269	3088.06855468
7.85e-07	3737.12671465	3081.00570154
7.851e-07	3779.62885809	3095.58606383
7.852e-07	3784.54224516	3085.06606444
7.853e-07	3754.84048795	3091.06400644
7.854e-07	3733.36975214	3063.00799076
7.855e-07	3712.24871501	3125.64944314
7.856e-07	3703.81847343	3073.64054663
7.857e-07	3740.9100436	3082.93945494
7.858e-07	3792.87059915	3087.81341502
7.859e-07	3731.3569501	3159.3870268
7.86e-07	3727.92727503	3139.02422083
7.861e-07	3713.60062695	3103.4294967
7.862e-07	3766.54154334	3162.04492755
7.863e-07	3749.20757318	3113.69842794
7.864e-07	3794.58365088	3119.89419778
7.865e-07	3775.33025742	3174.13460904
7.866e-07	3759.03764204	3126.23998446
7.867e-07	3783.26868405	3169.42185318
7.868e-07	3705.55538221	3185.61930981
7.869e-07	3723.1094967	3134.29545179
7.87e-07	3707.63228878	3151.89708312
7.871e-07	3795.63829146	3118.64379456
7.872e-07	3770.86718124	3133.94496372
7.873e-07	3766.23135091	3126.12016151
7.874e-07	3787.10017233	3119.08321204
7.875e-07	3704.82225443	3129.94915035
7.876e-07	3788.79101669	3184.61493547
7.877e-07	3772.96153	3121.33928055
7.878e-07	3720.3896979	3189.71865455
7.879e-07	3754.06180045	3183.17660403
7.88e-07	3756.24240873	3191.54297827
7.881e-07	3785.78753606	3163.29843901
7.882e-07	3715.83496069	3140.77672568
7.883e-07	3723.66582353	3153.65921168
7.884e-07	3745.28776206	3147.08764645
7.885e-07	3750.95703822	3135.80022534
7.886e-07	3771.76120307	3185.52172811
7.887e-07	3796.14618278	3203.29727117
7.888e-07	3765.17161876	3220.12920678
7.889e-07	3716.08512722	3211.00556659
7.89e-07	3769.56171512	3199.85741382
7.891e-07	3725.93423289	3156.96388409
7.892e-07	3700.9847154	3178.38932338
7.893e-07	3785.25033165	3153.12881773
7.894e-07	3784.93982969	3221.48007664
7.895e-07	3773.95403419	3231.84762976
7.896e-07	3778.58748177	3243.57048809
7.897e-07	3720.06871491	3229.37819125
7.898e-07	3767.42915855	3205.16231881
7.899e-07	3752.62117162	3195.82621693
7.9e-07	3743.62038929	3197.94130917
7.901e-07	3707.88742642	3176.51723106
7.902e-07	3783.18690385	3191.36191819
7.903e-07	3773.38284373	3202.08985448
7.904e-07	3752.34560315	3165.55947432
7.905e-07	3748.55907373	3253.52507411
7.906e-07	3754.46578309	3205.8121066
7.907e-07	3720.0302332	3192.05822522
7.908e-07	3750.84385693	3245.03682292
7.909e-07	3702.44894347	3253.2996091
7.91e-07	3744.0107216	3245.85512157
7.911e-07	3772.78434053	3204.09635053
7.912e-07	3731.34641486	3193.92120767
7.913e-07	3692.6296923	3204.29806712
7.914e-07	3754.33418412	3276.13460676
7.915e-07	3747.58751476	3222.39841672
7.916e-07	3719.90179118	3183.6765702
7.917e-07	3730.97457899	3278.13921709
7.918e-07	3730.2732434	3226.42053436
7.919e-07	3747.90467749	3276.65020082
7.92e-07	3760.21448869	3241.01818663
7.921e-07	3706.61649537	3250.78518198
7.922e-07	3765.5921372	3225.71307657
7.923e-07	3678.24554719	3252.55686694
7.924e-07	3753.85201683	3230.55072474
7.925e-07	3703.46822255	3234.39148099
7.926e-07	3732.88644032	3242.44153099
7.927e-07	3739.02757588	3201.02014417
7.928e-07	3725.11614419	3213.81286145
7.929e-07	3675.52187254	3288.57549691
7.93e-07	3752.24470183	3208.04365323
7.931e-07	3689.61945094	3235.34583935
7.932e-07	3737.74661822	3221.02679171
7.933e-07	3672.44525264	3251.31743015
7.934e-07	3725.56188758	3300.71427395
7.935e-07	3662.07390538	3301.39672593
7.936e-07	3737.95249351	3258.51707572
7.937e-07	3742.41332655	3257.31298492
7.938e-07	3691.10014506	3278.89927572
7.939e-07	3664.01557404	3300.1029418
7.94e-07	3658.19138103	3309.91098415
7.941e-07	3661.18094985	3220.54955899
7.942e-07	3693.29494511	3280.35740405
7.943e-07	3699.1688693	3265.05900612
7.944e-07	3739.80219475	3216.12644954
7.945e-07	3662.81107675	3303.37909823
7.946e-07	3664.45674585	3254.85792952
7.947e-07	3663.84814652	3246.8259293
7.948e-07	3663.21409614	3274.4446518
7.949e-07	3705.29747879	3240.86847413
7.95e-07	3645.3888352	3271.4282256
7.951e-07	3707.90485562	3271.61486284
7.952e-07	3648.69337541	3259.17955103
7.953e-07	3672.57090414	3255.25027672
7.954e-07	3624.58492791	3236.67022704
7.955e-07	3653.54696392	3250.98593727
7.956e-07	3626.24058197	3306.06726895
7.957e-07	3618.80283313	3290.42918259
7.958e-07	3665.89621842	3267.8869272
7.959e-07	3640.04146073	3255.41691969
7.96e-07	3699.60747536	3315.08761877
7.961e-07	3629.26152892	3296.17370185
7.962e-07	3630.34539369	3269.33112059
7.963e-07	3621.06052617	3234.11410429
7.964e-07	3631.20130985	3235.47848955
7.965e-07	3643.36614484	3239.46218879
7.966e-07	3667.49666806	3303.72964973
7.967e-07	3672.76358274	3246.57675635
7.968e-07	3618.06045159	3230.93543043
7.969e-07	3674.28130921	3240.84073847
7.97e-07	3666.04951725	3315.65021503
7.971e-07	3600.46365909	3271.83345229
7.972e-07	3590.98140077	3269.50609418
7.973e-07	3595.48462104	3265.81685751
7.974e-07	3676.15082133	3244.18667421
7.975e-07	3594.6573274	3320.6329624
7.976e-07	3654.56322983	3229.77494455
7.977e-07	3610.29464256	3300.15537401
7.978e-07	3613.80191313	3292.57334714
7.979e-07	3575.13881902	3243.03122239
7.98e-07	3642.78923782	3319.96106248
7.981e-07	3657.16790474	3267.06026105
7.982e-07	3559.31410045	3320.02370827
7.983e-07	3621.52420174	3248.07503927
7.984e-07	3639.84548703	3250.74431254
7.985e-07	3595.60620788	3293.35677074
7.986e-07	3624.03779383	3258.9408472
7.987e-07	3625.14676432	3306.11919751
7.988e-07	3640.05154411	3270.49404493
7.989e-07	3618.61052513	3320.60214794
7.99e-07	3562.78195137	3252.33295308
7.991e-07	3610.36753863	3283.00994892
7.992e-07	3619.22720848	3247.18019566
7.993e-07	3528.22413212	3277.9441641
7.994e-07	3621.327832	3305.18141606
7.995e-07	3613.0640984	3322.77962293
7.996e-07	3533.21896808	3319.75337123
7.997e-07	3599.49135084	3308.01177252
7.998e-07	3603.84712565	3224.70688716
7.999e-07	3590.65447811	3242.49559595
8e-07	3518.12894729	3303.78845647
8.001e-07	3537.21307044	3250.33884314
8.002e-07	3555.65987172	3297.81965159
8.003e-07	3545.94287805	3298.11186382
8.004e-07	3544.95725294	3269.54384678
8.005e-07	3516.39976757	3274.28175385
8.006e-07	3565.51043019	3223.16090393
8.007e-07	3498.34392938	3254.25765584
8.008e-07	3490.70198708	3226.01053404
8.009e-07	3503.42010464	3246.20134909
8.01e-07	3536.06204196	3245.28099404
8.011e-07	3499.34517644	3301.11690016
8.012e-07	3529.87725943	3247.73759655
8.013e-07	3545.05573058	3300.53865573
8.014e-07	3501.14521426	3286.0873617
8.015e-07	3513.53835533	3257.49156102
8.016e-07	3511.73378312	3285.88527101
8.017e-07	3529.23677146	3294.24975968
8.018e-07	3528.31956107	3277.19715009
8.019e-07	3523.56196108	3219.41292386
8.02e-07	3529.31933267	3307.03121915
8.021e-07	3444.56943029	3306.19546635
8.022e-07	3508.99569725	3282.81051833
8.023e-07	3436.3721076	3214.78764431
8.024e-07	3499.61060794	3241.48686881
8.025e-07	3478.09221291	3291.81781497
8.026e-07	3472.23589583	3289.40653365
8.027e-07	3428.15777667	3265.50043299
8.028e-07	3494.62821185	3221.50040471
8.029e-07	3503.16137196	3280.80858095
8.03e-07	3436.34641837	3293.50515434
8.031e-07	3448.97891962	3222.0484356
8.032e-07	3463.35305106	3211.20029269
8.033e-07	3466.1248227	3259.5180135
8.034e-07	3450.45402545	3274.29053547
8.035e-07	3427.65860533	3272.88644983
8.036e-07	3394.0517174	3232.65795208
8.037e-07	3408.47966394	3226.55936076
8.038e-07	3384.94853304	3267.21246244
8.039e-07	3418.92949968	3247.00177802
8.04e-07	3391.0411127	3213.39164186
8.041e-07	3359.41206699	3261.72112618
8.042e-07	3392.52029338	3197.1258431
8.043e-07	3450.22027927	3202.55066938
8.044e-07	3357.45026577	3223.09924954
8.045e-07	3401.86556421	3205.47219228
8.046e-07	3349.37115616	3181.72026284
8.047e-07	3418.27503605	3187.78238099
8.048e-07	3382.41869478	3249.9488873
8.049e-07	3344.8347285	3184.97250168
8.05e-07	3329.20092713	3259.53624763
8.051e-07	3412.22792243	3239.00084796
8.052e-07	3405.1299842	3240.89674391
8.053e-07	3376.06584508	3203.65414679
8.054e-07	3313.96115168	3262.69420729
8.055e-07	3337.82736069	3260.91873829
8.056e-07	3374.5682598	3251.16739402
8.057e-07	3371.84977733	3175.10369301
8.058e-07	3356.5827207	3189.73779829
8.059e-07	3367.3143201	3221.90125651
8.06e-07	3283.38917825	3207.42414267
8.061e-07	3287.15018406	3189.39083511
8.062e-07	3303.59012548	3157.03238767
8.063e-07	3356.09980669	3156.70578614
8.064e-07	3291.94161143	3167.09839384
8.065e-07	3356.87162414	3231.97516923
8.066e-07	3276.51101465	3197.71760832
8.067e-07	3253.03903265	3140.8985819
8.068e-07	3321.08951811	3168.81693369
8.069e-07	3286.83172612	3224.5782248
8.07e-07	3313.19357934	3161.64436607
8.071e-07	3278.31174951	3147.37000477
8.072e-07	3318.27115271	3183.04660573
8.073e-07	3304.08668234	3153.76801764
8.074e-07	3277.38424301	3192.73570112
8.075e-07	3225.18952604	3164.28353618
8.076e-07	3228.73706626	3131.54266772
8.077e-07	3242.34635298	3198.81134547
8.078e-07	3231.98971233	3154.73952793
8.079e-07	3256.50742438	3200.59493926
8.08e-07	3257.9617663	3139.60309426
8.081e-07	3280.26838382	3200.41845729
8.082e-07	3245.07916374	3111.78752671
8.083e-07	3273.78597558	3159.55543527
8.084e-07	3259.2401903	3171.95651344
8.085e-07	3171.5313954	3188.7460759
8.086e-07	3251.93681138	3157.71721007
8.087e-07	3224.17822017	3177.68313981
8.088e-07	3161.75123764	3115.09632839
8.089e-07	3176.87539882	3122.00957756
8.09e-07	3157.22412038	3145.81006801
8.091e-07	3147.24090571	3117.75325771
8.092e-07	3132.24406691	3157.65225112
8.093e-07	3191.72016467	3099.79569008
8.094e-07	3166.02771781	3168.7828143
8.095e-07	3195.50422348	3077.57030812
8.096e-07	3206.03042255	3167.1775147
8.097e-07	3109.84796126	3080.80649675
8.098e-07	3112.92367067	3155.45600739
8.099e-07	3110.50627237	3091.02685067
8.1e-07	3156.46543678	3080.36413238
8.101e-07	3128.13491766	3075.89290043
8.102e-07	3134.91932315	3091.17554974
8.103e-07	3084.21260503	3146.92915946
8.104e-07	3125.67509083	3100.65003355
8.105e-07	3160.87605969	3075.12381508
8.106e-07	3073.62629284	3074.79160115
8.107e-07	3115.19695194	3080.08673904
8.108e-07	3108.17662088	3068.68044904
8.109e-07	3117.21463746	3129.89899957
8.11e-07	3121.33939865	3110.23996534
8.111e-07	3105.36086901	3071.30204108
8.112e-07	3111.32281752	3088.85665337
8.113e-07	3071.32785902	3060.23488213
8.114e-07	3039.7181855	3035.70671921
8.115e-07	3062.87658847	3056.95651004
8.116e-07	3058.21239171	3035.61889941
8.117e-07	3082.82009535	3099.18259871
8.118e-07	3096.06372195	3028.48287699
8.119e-07	2997.59986861	3065.84560721
8.12e-07	3056.44654473	3077.154817
8.121e-07	3063.50915283	3053.5262232
8.122e-07	3035.16034451	3031.16419482
8.123e-07	3063.21817712	3091.74176982
8.124e-07	3020.98379849	3056.99255904
8.125e-07	2968.56079917	3042.11547852
8.126e-07	2990.99910224	3030.73550512
8.127e-07	3019.45219114	3059.434097
8.128e-07	2958.56628281	3050.43554252
8.129e-07	2966.89408527	3070.88356771
8.13e-07	2961.50787078	3062.51254457
8.131e-07	2933.23970289	3059.64248203
8.132e-07	3011.13664984	3052.18698542
8.133e-07	2972.48480059	2972.1538332
8.134e-07	2985.94397187	3006.92979568
8.135e-07	2981.88392552	2962.11019367
8.136e-07	2987.29157108	2981.08953412
8.137e-07	2914.67986408	2950.98240451
8.138e-07	2957.8760519	2980.02964009
8.139e-07	2901.83401609	3038.51081789
8.14e-07	2921.6602903	2953.81702058
8.141e-07	2956.93077267	3006.90622086
8.142e-07	2895.94434554	2961.37980714
8.143e-07	2875.55874169	2962.06297863
8.144e-07	2938.39465299	2944.02591894
8.145e-07	2950.41793431	2977.09062601
8.146e-07	2921.16682678	2968.07232289
8.147e-07	2926.30234327	2935.35872433
8.148e-07	2938.76127507	2913.12900095
8.149e-07	2927.65321312	2960.94800754
8.15e-07	2844.0767575	2944.0980178
8.151e-07	2866.95774312	2904.20605033
8.152e-07	2858.67787633	2968.22067043
8.153e-07	2867.6079098	2917.31596315
8.154e-07	2858.68582939	2980.26367685
8.155e-07	2810.90440132	2896.19106641
8.156e-07	2827.47654957	2911.12013905
8.157e-07	2856.35956457	2953.58938047
8.158e-07	2852.67414074	2927.95002276
8.159e-07	2823.46558606	2947.67829552
8.16e-07	2831.10243015	2903.93780544
8.161e-07	2811.8736097	2894.97425032
8.162e-07	2820.9505303	2901.40660256
8.163e-07	2771.25982295	2907.49094355
8.164e-07	2799.71820683	2917.82427495
8.165e-07	2744.61069941	2893.01969544
8.166e-07	2771.85438069	2909.129331
8.167e-07	2821.42371437	2886.11007501
8.168e-07	2798.93883205	2920.53869697
8.169e-07	2784.45261337	2864.3298066
8.17e-07	2727.06801046	2901.74457101
8.171e-07	2764.70517676	2865.83694962
8.172e-07	2730.88544496	2893.66048771
8.173e-07	2794.16914787	2857.76261244
8.174e-07	2777.03450913	2846.6592511
8.175e-07	2774.07772925	2822.00002439
8.176e-07	2730.96167979	2847.00834973
8.177e-07	2771.0663889	2852.23850576
8.178e-07	2677.82971152	2870.38088534
8.179e-07	2737.56612217	2800.62747392
8.18e-07	2728.21866533	2876.98590136
8.181e-07	2677.62025771	2873.81662187
8.182e-07	2666.72308351	2875.11904706
8.183e-07	2662.91008555	2781.51742844
8.184e-07	2710.51282368	2858.21088789
8.185e-07	2703.17390011	2822.7217992
8.186e-07	2685.8695411	2784.74783381
8.187e-07	2699.09819197	2768.14032909
8.188e-07	2668.57863239	2855.16810462
8.189e-07	2623.80442859	2839.70095255
8.19e-07	2676.15228368	2806.54352643
8.191e-07	2619.16619819	2797.44884676
8.192e-07	2597.26319039	2839.85202408
8.193e-07	2615.54321427	2812.11466451
8.194e-07	2632.55500293	2804.53980234
8.195e-07	2620.6803248	2756.74969783
8.196e-07	2623.08121718	2743.77491313
8.197e-07	2577.1347855	2765.20009261
8.198e-07	2616.14086462	2731.62394581
8.199e-07	2589.1753273	2729.82991305
8.2e-07	2582.94119397	2779.31289508
8.201e-07	2541.35170485	2782.25057817
8.202e-07	2551.76348707	2787.65436204
8.203e-07	2574.30639458	2709.63207055
8.204e-07	2549.83867631	2761.37357432
8.205e-07	2569.80350632	2734.9265735
8.206e-07	2585.76305866	2682.94547972
8.207e-07	2595.74814674	2691.75897872
8.208e-07	2590.17237694	2675.95990341
8.209e-07	2583.30656395	2744.99340887
8.21e-07	2569.43285513	2735.41861354
8.211e-07	2485.5173732	2724.32899425
8.212e-07	2513.32399673	2709.62016387
8.213e-07	2559.08069727	2650.16456815
8.214e-07	2524.76951894	2673.62330449
8.215e-07	2541.05005376	2644.93968151
8.216e-07	2514.42276793	2651.72529569
8.217e-07	2440.21091752	2706.83242376
8.218e-07	2488.71174375	2648.69011927
8.219e-07	2437.91447997	2690.91721648
8.22e-07	2510.38697086	2669.25830701
8.221e-07	2501.55300003	2708.91443564
8.222e-07	2482.99770682	2670.97484261
8.223e-07	2476.03114964	2685.67324132
8.224e-07	2397.79388311	2671.74517176
8.225e-07	2468.63953744	2651.60783173
8.226e-07	2426.15878352	2688.06987483
8.227e-07	2405.52516469	2617.51041896
8.228e-07	2407.28508449	2595.91431568
8.229e-07	2399.80341842	2635.8913756
8.23e-07	2375.46496917	2597.70252234
8.231e-07	2437.20950359	2626.46247472
8.232e-07	2387.84439038	2612.40936411
8.233e-07	2345.03973073	2657.83959993
8.234e-07	2393.51025817	2633.52721479
8.235e-07	2404.35759943	2648.54148047
8.236e-07	2375.09514675	2614.8192228
8.237e-07	2333.34423792	2593.9015381
8.238e-07	2382.24626027	2600.88173226
8.239e-07	2383.92072927	2563.33103398
8.24e-07	2371.27212018	2607.24788997
8.241e-07	2387.31274651	2613.11848734
8.242e-07	2304.38761203	2607.60564181
8.243e-07	2304.72794288	2561.24555214
8.244e-07	2316.48763584	2604.85870266
8.245e-07	2306.74388702	2571.87086741
8.246e-07	2299.85571931	2558.83688401
8.247e-07	2284.65319987	2547.98158277
8.248e-07	2318.23495417	2527.64377347
8.249e-07	2331.58433966	2561.57870073
8.25e-07	2242.69460652	2505.11099224
8.251e-07	2237.2243318	2540.56449125
8.252e-07	2304.55994243	2523.72073031
8.253e-07	2321.86011344	2507.28179192
8.254e-07	2286.59781976	2517.25758375
8.255e-07	2211.35935391	2479.26074286
8.256e-07	2233.59263293	2503.40851912
8.257e-07	2278.64565414	2519.99430817
8.258e-07	2200.71091604	2492.58951713
8.259e-07	2258.97957657	2437.09308325
8.26e-07	2277.78685201	2527.06863904
8.261e-07	2213.81297314	2483.82471678
8.262e-07	2203.90698582	2425.68497197
8.263e-07	2208.9661674	2452.30791178
8.264e-07	2246.8541799	2491.89276084
8.265e-07	2174.18655598	2409.52574712
8.266e-07	2151.80150173	2476.69854405
8.267e-07	2172.1803637	2453.02623493
8.268e-07	2206.45782165	2477.85821568
8.269e-07	2128.36840899	2418.74026246
8.27e-07	2127.23502197	2405.80248457
8.271e-07	2186.57595966	2406.80306523
8.272e-07	2190.62054548	2390.00259829
8.273e-07	2150.84681149	2455.26305219
8.274e-07	2163.87474642	2387.69726744
8.275e-07	2188.17200172	2407.21930491
8.276e-07	2169.08651521	2349.14011289
8.277e-07	2156.60277417	2360.81024683
8.278e-07	2075.73070854	2402.14650381
8.279e-07	2163.62043337	2392.16573317
8.28e-07	2075.64036115	2415.81268388
8.281e-07	2062.33965358	2381.29306227
8.282e-07	2124.81838508	2412.99058798
8.283e-07	2111.34792126	2324.56101123
8.284e-07	2110.50269909	2391.20554991
8.285e-07	2060.5724355	2366.89755929
8.286e-07	2075.42803509	2324.37304928
8.287e-07	2086.5790893	2309.94012572
8.288e-07	2089.41802869	2355.21933829
8.289e-07	2069.21041194	2338.03071164
8.29e-07	2060.92882295	2311.74397394
8.291e-07	2076.48677795	2361.88881677
8.292e-07	2086.21906474	2294.93060777
8.293e-07	2055.72728558	2336.39073019
8.294e-07	1986.83747933	2301.01510582
8.295e-07	1985.33565078	2259.35983085
8.296e-07	2044.40888349	2293.2633163
8.297e-07	1990.56501703	2272.53719873
8.298e-07	2004.21008989	2331.08753695
8.299e-07	1981.19995361	2263.24015708
8.3e-07	2001.06978243	2302.50601496
8.301e-07	2006.84903315	2297.3505985
8.302e-07	1959.47285489	2303.65363272
8.303e-07	2018.26643298	2219.01756066
8.304e-07	1925.94458491	2259.95247136
8.305e-07	1987.76266076	2248.00438374
8.306e-07	1964.75344215	2219.15107622
8.307e-07	1984.35604837	2246.50733051
8.308e-07	1958.65590086	2253.62418673
8.309e-07	1953.60694969	2240.10571848
8.31e-07	1907.39846032	2182.35230864
8.311e-07	1889.41571683	2228.3573102
8.312e-07	1878.5498721	2211.24001173
8.313e-07	1931.2300341	2184.42939853
8.314e-07	1947.21652123	2160.64584447
8.315e-07	1895.66501452	2215.58969794
8.316e-07	1920.08515159	2242.86117851
8.317e-07	1927.452635	2230.784499
8.318e-07	1921.65530002	2171.51781502
8.319e-07	1918.12742549	2210.32137351
8.32e-07	1909.32159878	2186.26787592
8.321e-07	1862.18480049	2136.48167916
8.322e-07	1894.18302846	2143.81996519
8.323e-07	1880.51419199	2128.32785095
8.324e-07	1899.77766768	2104.01783542
8.325e-07	1892.59928228	2169.62199563
8.326e-07	1791.885364	2101.00348786
8.327e-07	1841.84665073	2120.92162915
8.328e-07	1868.35938443	2132.90010254
8.329e-07	1797.22649477	2145.87047056
8.33e-07	1786.57994806	2080.64001428
8.331e-07	1774.58983682	2118.34281065
8.332e-07	1799.98514184	2113.28000806
8.333e-07	1809.34726266	2128.35424477
8.334e-07	1761.8222339	2109.52814529
8.335e-07	1794.66498323	2082.49816535
8.336e-07	1752.80748595	2084.65459886
8.337e-07	1728.87596943	2042.2635877
8.338e-07	1786.17208692	2053.88611971
8.339e-07	1754.71588291	2076.22580729
8.34e-07	1757.44560104	2116.02849253
8.341e-07	1748.37132417	2099.61641009
8.342e-07	1787.29643712	2016.82147956
8.343e-07	1755.34415622	2020.22068729
8.344e-07	1703.88627259	2051.80156981
8.345e-07	1719.62263341	2032.91624168
8.346e-07	1749.21695241	2062.42500119
8.347e-07	1683.51631263	2017.93779761
8.348e-07	1673.71981509	2029.40213998
8.349e-07	1754.0420456	2048.62197983
8.35e-07	1684.03521487	2036.66018503
8.351e-07	1684.99918465	2025.1165541
8.352e-07	1711.72716516	1956.25423959
8.353e-07	1668.02087132	1999.09457967
8.354e-07	1671.98704654	1972.38854688
8.355e-07	1697.26129279	1976.00919241
8.356e-07	1642.0284393	1941.78242144
8.357e-07	1672.46391847	2010.4219855
8.358e-07	1680.90343331	1972.12537874
8.359e-07	1649.92963723	1972.14992938
8.36e-07	1648.20323331	1990.84575135
8.361e-07	1634.12078243	1942.86218187
8.362e-07	1616.38011186	1992.08142948
8.363e-07	1655.29176164	1948.87320245
8.364e-07	1615.24524338	1928.3905469
8.365e-07	1577.31984853	1920.23083307
8.366e-07	1611.82139271	1932.10320285
8.367e-07	1617.76319137	1879.80051469
8.368e-07	1558.79344626	1949.10474557
8.369e-07	1552.9648711	1894.39821992
8.37e-07	1577.65288919	1877.16416275
8.371e-07	1630.5709077	1927.25229447
8.372e-07	1552.95444661	1899.64722968
8.373e-07	1617.78877836	1848.95303641
8.374e-07	1556.85146686	1854.65104362
8.375e-07	1611.65747923	1846.56582354
8.376e-07	1555.52962328	1896.63751295
8.377e-07	1541.94911984	1876.65830557
8.378e-07	1504.88541305	1824.15679262
8.379e-07	1517.42628113	1820.69937718
8.38e-07	1507.21751435	1893.53746647
8.381e-07	1525.28966092	1813.19810427
8.382e-07	1571.30697537	1887.64952266
8.383e-07	1566.52912657	1809.12334546
8.384e-07	1512.22584067	1826.01360833
8.385e-07	1510.82518673	1817.82844601
8.386e-07	1550.12384216	1780.40961198
8.387e-07	1457.62122261	1798.52617328
8.388e-07	1494.9673624	1786.69037752
8.389e-07	1533.92864299	1775.77687755
8.39e-07	1457.70688149	1849.86538615
8.391e-07	1495.12624184	1770.86498788
8.392e-07	1428.97579357	1830.97812093
8.393e-07	1435.80065659	1796.57306611
8.394e-07	1434.94818098	1834.59343533
8.395e-07	1420.47578716	1749.48113521
8.396e-07	1420.14374193	1731.64000857
8.397e-07	1429.77904552	1726.76986648
8.398e-07	1399.3601784	1745.57174139
8.399e-07	1475.78113668	1787.61767015
8.4e-07	1479.55191311	1762.13540629
8.401e-07	1406.82638772	1707.60102694
8.402e-07	1415.61696311	1780.80504286
8.403e-07	1372.34524973	1723.22563799
8.404e-07	1413.68387921	1721.56637247
8.405e-07	1409.42403297	1717.16005489
8.406e-07	1385.57333071	1678.43681503
8.407e-07	1396.61999597	1702.66198087
8.408e-07	1413.24618258	1733.86556785
8.409e-07	1368.2193937	1665.91728272
8.41e-07	1345.86442708	1671.92136158
8.411e-07	1356.34454677	1714.33080132
8.412e-07	1393.99752716	1695.45197237
8.413e-07	1412.4937619	1715.8239577
8.414e-07	1390.62718345	1719.98735387
8.415e-07	1311.94762882	1681.62302022
8.416e-07	1369.38305979	1665.18983194
8.417e-07	1310.32228953	1653.45558364
8.418e-07	1330.71531756	1677.90121862
8.419e-07	1291.81333802	1683.85318055
8.42e-07	1372.2897349	1617.6957247
8.421e-07	1297.52996591	1659.66410757
8.422e-07	1302.00577163	1674.87070981
8.423e-07	1275.4438629	1596.94434941
8.424e-07	1269.38855026	1635.38444651
8.425e-07	1277.31797944	1634.74447793
8.426e-07	1283.73102812	1626.19070229
8.427e-07	1266.6587262	1650.37489192
8.428e-07	1315.10254026	1606.41750422
8.429e-07	1272.20769087	1593.79528275
8.43e-07	1241.84543685	1633.08209947
8.431e-07	1276.41597005	1623.54992718
8.432e-07	1308.84664972	1640.46933501
8.433e-07	1245.17950061	1612.22893633
8.434e-07	1249.52098692	1575.69861647
8.435e-07	1257.5510294	1605.0263212
8.436e-07	1253.35093019	1566.55097662
8.437e-07	1203.0515467	1529.51843794
8.438e-07	1209.76104155	1569.85984803
8.439e-07	1281.43261355	1555.38960353
8.44e-07	1232.64373119	1555.83028043
8.441e-07	1230.21373924	1518.81154722
8.442e-07	1269.4027552	1501.20994302
8.443e-07	1246.18609418	1541.01014696
8.444e-07	1170.64995601	1569.99837785
8.445e-07	1185.51281704	1545.81471634
8.446e-07	1200.12366923	1511.95993218
8.447e-07	1169.10644128	1540.61307344
8.448e-07	1182.50927962	1545.76057091
8.449e-07	1216.206197	1553.9092856
8.45e-07	1174.49048972	1534.71801395
8.451e-07	1225.68763054	1515.03503716
8.452e-07	1171.68798274	1518.20295296
8.453e-07	1173.78443892	1440.03531751
8.454e-07	1151.43623355	1521.45780064
8.455e-07	1208.70549595	1512.09107887
8.456e-07	1183.50245467	1449.71954704
8.457e-07	1107.07154585	1492.14461344
8.458e-07	1147.85815859	1486.16161796
8.459e-07	1169.29775335	1444.33707121
8.46e-07	1146.76207875	1452.56066064
8.461e-07	1169.19163396	1473.06170079
8.462e-07	1127.47858909	1460.5577848
8.463e-07	1106.93787205	1466.24580313
8.464e-07	1102.30017225	1399.43832717
8.465e-07	1139.29426487	1394.72440826
8.466e-07	1148.99735915	1438.35868313
8.467e-07	1152.25170619	1383.72840836
8.468e-07	1062.17996514	1371.22801903
8.469e-07	1140.56832873	1434.85900255
8.47e-07	1093.7974861	1406.43568274
8.471e-07	1079.29882587	1375.79129823
8.472e-07	1039.90695585	1402.04741514
8.473e-07	1063.23713291	1341.13083773
8.474e-07	1060.94739048	1418.16020444
8.475e-07	1069.41163858	1355.01222819
8.476e-07	1047.51845954	1404.66800453
8.477e-07	1063.41254461	1389.84940503
8.478e-07	1070.10909598	1411.14316789
8.479e-07	1093.17033165	1391.09750513
8.48e-07	1021.51486239	1375.71976551
8.481e-07	1048.3793546	1363.36586874
8.482e-07	1078.40964392	1362.82769188
8.483e-07	1013.91196056	1357.80930729
8.484e-07	1017.54421327	1363.03910241
8.485e-07	1023.62492869	1303.18046988
8.486e-07	1059.72436927	1376.06265618
8.487e-07	994.484830936	1286.63306207
8.488e-07	1062.49200765	1324.60289135
8.489e-07	1009.7557529	1348.56349747
8.49e-07	968.535370938	1337.81696878
8.491e-07	967.704545168	1349.45761535
8.492e-07	1034.59323077	1347.14234696
8.493e-07	982.363824456	1292.49951231
8.494e-07	947.595184613	1299.67489904
8.495e-07	997.830077116	1306.71010131
8.496e-07	978.250780537	1309.73990382
8.497e-07	1025.86121218	1261.07885743
8.498e-07	992.783800865	1251.29046441
8.499e-07	969.419204598	1310.14298917
8.5e-07	1010.5404504	1240.81879173
8.501e-07	975.948137288	1279.7993037
8.502e-07	1002.18824853	1270.21385646
8.503e-07	912.301071853	1264.84939141
8.504e-07	983.322552608	1267.25151097
8.505e-07	992.725962434	1211.12725181
8.506e-07	954.219102939	1224.88989716
8.507e-07	913.948492419	1223.60670536
8.508e-07	912.610032468	1202.57014658
8.509e-07	933.450226783	1234.52222045
8.51e-07	910.414000375	1252.55337396
8.511e-07	968.028643225	1221.84219247
8.512e-07	920.195755932	1189.41618813
8.513e-07	950.807277855	1163.93089317
8.514e-07	888.777920175	1231.09128485
8.515e-07	912.445877665	1194.97254066
8.516e-07	950.523754018	1179.7675644
8.517e-07	918.484886939	1176.86807589
8.518e-07	926.385960803	1134.94835672
8.519e-07	881.670507149	1148.76541687
8.52e-07	889.298595893	1173.64502025
8.521e-07	865.693932476	1182.90613332
8.522e-07	882.480795089	1149.75569344
8.523e-07	890.900598588	1197.23720076
8.524e-07	826.022876922	1150.90334181
8.525e-07	899.44793442	1129.90800644
8.526e-07	829.109554483	1110.80676436
8.527e-07	840.276316898	1158.42856904
8.528e-07	812.942366868	1167.96907492
8.529e-07	857.838149009	1125.86847571
8.53e-07	804.242778639	1142.63543729
8.531e-07	860.222317486	1112.6942261
8.532e-07	843.541139994	1143.66399139
8.533e-07	818.919386178	1162.61026368
8.534e-07	805.856690902	1152.9641723
8.535e-07	814.207628253	1067.79325485
8.536e-07	782.686408757	1156.07451044
8.537e-07	819.327712104	1053.5248412
8.538e-07	865.869647576	1123.54169498
8.539e-07	825.209573806	1132.99550549
8.54e-07	845.413056542	1108.61853418
8.541e-07	817.189131656	1046.08782926
8.542e-07	766.72879754	1123.02439288
8.543e-07	832.42063161	1029.13804054
8.544e-07	818.436776444	1075.86024545
8.545e-07	759.186872739	1088.78912457
8.546e-07	775.220342587	1104.00195751
8.547e-07	749.896832696	1043.95757945
8.548e-07	816.632348731	1089.20141374
8.549e-07	822.605523172	1072.21097161
8.55e-07	780.19389681	1001.79403964
8.551e-07	736.844259228	1054.18047087
8.552e-07	760.798548846	1000.19843557
8.553e-07	715.839094862	1047.72357177
8.554e-07	739.990393169	990.888604462
8.555e-07	711.061901837	1069.87149604
8.556e-07	706.997103368	1067.53504728
8.557e-07	755.841816	1049.65170582
8.558e-07	771.077450307	1057.14319277
8.559e-07	697.285116082	1005.2583003
8.56e-07	749.96218351	1053.14441587
8.561e-07	734.010184604	963.92121707
8.562e-07	767.572127089	953.810190524
8.563e-07	725.174139537	950.821246082
8.564e-07	681.571654383	991.78528385
8.565e-07	737.898303823	980.060512616
8.566e-07	757.505037777	955.227444451
8.567e-07	760.39698779	1017.2785064
8.568e-07	697.249278068	1016.0655035
8.569e-07	666.58451659	959.861410741
8.57e-07	692.864383932	1014.91476243
8.571e-07	692.479354118	976.600082412
8.572e-07	701.414911907	1010.13764081
8.573e-07	686.553292598	940.011774669
8.574e-07	712.44508271	950.580292763
8.575e-07	666.44452366	972.524092865
8.576e-07	694.550427923	944.284608359
8.577e-07	675.689991736	956.863964627
8.578e-07	651.537263816	976.000005042
8.579e-07	702.471995736	933.651355673
8.58e-07	674.43526173	975.109688349
8.581e-07	665.160620658	926.895030952
8.582e-07	690.162266809	920.351700819
8.583e-07	690.725039416	902.565537586
8.584e-07	702.336364001	954.246293285
8.585e-07	689.679781641	915.325110037
8.586e-07	623.285764385	875.832472824
8.587e-07	628.570123005	906.79104157
8.588e-07	692.896045888	874.494395565
8.589e-07	665.226895576	880.266592327
8.59e-07	692.502488409	884.681078403
8.591e-07	658.25365906	923.149255966
8.592e-07	611.210971792	871.257161215
8.593e-07	610.981501489	899.131006128
8.594e-07	627.730191721	830.849261297
8.595e-07	679.734481485	907.434764594
8.596e-07	588.40292629	836.272079483
8.597e-07	660.926118477	892.099524104
8.598e-07	656.276973318	874.149569175
8.599e-07	616.608427979	904.651937832
8.6e-07	628.325059224	900.979128323
8.601e-07	649.24702993	874.167907979
8.602e-07	618.274984247	824.980870806
8.603e-07	632.541691453	836.83787198
8.604e-07	632.034049777	860.573117705
8.605e-07	602.034354592	794.475123094
8.606e-07	550.190714021	793.682239938
8.607e-07	552.453014822	846.370635054
8.608e-07	567.998436512	861.481136189
8.609e-07	635.77710811	864.788643778
8.61e-07	588.768872567	822.060557728
8.611e-07	626.70212682	851.932836622
8.612e-07	540.840259842	819.082260712
8.613e-07	560.614579035	786.990430343
8.614e-07	540.471395805	786.024554739
8.615e-07	561.01839183	840.953318241
8.616e-07	612.069784218	811.554439354
8.617e-07	608.083028453	775.843190606
8.618e-07	535.505091928	763.045589045
8.619e-07	606.43725248	811.337965551
8.62e-07	582.029764537	740.289582609
8.621e-07	541.447879655	831.865787989
8.622e-07	595.661134964	789.612225157
8.623e-07	578.304558626	739.036837817
8.624e-07	570.447916432	810.155215593
8.625e-07	510.382741838	755.833803719
8.626e-07	500.009231239	717.251034953
8.627e-07	505.489457705	791.232475466
8.628e-07	542.204562157	805.732867421
8.629e-07	522.896661063	757.286639473
8.63e-07	493.948894396	787.128692213
8.631e-07	576.890335228	788.470656928
8.632e-07	503.259113412	704.83558512
8.633e-07	496.549249582	693.95764032
8.634e-07	517.542220635	735.690878471
8.635e-07	568.515313298	731.003255977
8.636e-07	480.411541932	699.116409589
8.637e-07	530.272894664	708.055630761
8.638e-07	504.533524224	730.742137288
8.639e-07	548.157116471	703.330370376
8.64e-07	527.778204283	756.511820427
8.641e-07	485.376391987	668.108657705
8.642e-07	543.756850495	669.616806012
8.643e-07	478.864770163	686.781485247
8.644e-07	485.767746673	657.989178082
8.645e-07	531.509623764	666.220723911
8.646e-07	442.220311036	709.961340461
8.647e-07	454.002403105	744.063514923
8.648e-07	499.802682191	697.589556224
8.649e-07	527.704711779	674.825706938
8.65e-07	437.743114721	653.187048674
8.651e-07	438.88314886	649.258201947
8.652e-07	497.932812014	653.33670513
8.653e-07	493.393142824	689.794383338
8.654e-07	492.545162637	652.855631686
8.655e-07	493.395114785	640.679192961
8.656e-07	472.486831653	643.996276701
8.657e-07	438.076673495	621.539982871
8.658e-07	494.739758084	646.542759004
8.659e-07	452.272090193	687.086374748
8.66e-07	486.012664048	665.987618435
8.661e-07	419.91924221	625.22007734
8.662e-07	500.807885173	646.67743543
8.663e-07	453.176605116	651.965090092
8.664e-07	433.867399915	691.114911907
8.665e-07	433.533707818	632.777847148
8.666e-07	411.712893798	655.604283452
8.667e-07	445.459694512	619.297768203
8.668e-07	408.7701798	653.637529956
8.669e-07	446.375172551	635.158537448
8.67e-07	391.558981621	675.767848667
8.671e-07	395.485884871	629.342283961
8.672e-07	463.77512421	605.102908146
8.673e-07	396.521740425	608.487472656
8.674e-07	453.82668862	576.686337698
8.675e-07	450.899464274	605.786951406
8.676e-07	377.196657264	586.014194734
8.677e-07	402.079273851	624.810645597
8.678e-07	454.282231611	631.175505308
8.679e-07	379.091862683	577.734974234
8.68e-07	457.604894866	568.624995093
8.681e-07	410.451707398	564.916359876
8.682e-07	433.200420913	563.350966737
8.683e-07	403.050419768	639.708324506
8.684e-07	414.619778134	605.732638846
8.685e-07	359.416438748	577.918846701
8.686e-07	359.983619912	621.156687204
8.687e-07	386.033911286	534.639520717
8.688e-07	364.205448126	584.819796698
8.689e-07	353.275515216	530.203449486
8.69e-07	400.364430678	615.566106607
8.691e-07	399.387103468	581.567652146
8.692e-07	422.062147615	544.598526698
8.693e-07	396.706640063	521.445948537
8.694e-07	396.700867343	589.233820197
8.695e-07	386.614785892	566.415057492
8.696e-07	379.744526402	554.789061551
8.697e-07	337.13717966	556.262237218
8.698e-07	422.600382505	560.047336155
8.699e-07	384.42011316	594.262831083
8.7e-07	355.155357536	570.759057611
8.701e-07	342.802158655	574.38717787
8.702e-07	391.972237829	558.564912549
8.703e-07	387.079988287	559.056045835
8.704e-07	409.23398859	564.76961962
8.705e-07	339.063986848	538.820616767
8.706e-07	375.591464515	559.956479801
8.707e-07	367.264274968	502.245924379
8.708e-07	380.2275944	512.417589068
8.709e-07	397.263656056	479.911863283
8.71e-07	401.753198302	523.761055201
8.711e-07	349.574851269	567.915206412
8.712e-07	349.370086526	484.072154079
8.713e-07	360.75364903	492.12813744
8.714e-07	314.104003745	530.386722448
8.715e-07	312.160945126	559.16399752
8.716e-07	332.621313418	490.311972597
8.717e-07	329.35537236	486.873361113
8.718e-07	302.224963075	547.831180129
8.719e-07	363.979000761	511.840501327
8.72e-07	293.09046859	463.380554254
8.721e-07	384.899660649	454.389940363
8.722e-07	292.961658288	501.43933403
8.723e-07	351.051261665	493.146676266
8.724e-07	326.353215833	528.95525495
8.725e-07	286.271717975	477.853848512
8.726e-07	309.661970389	442.741869877
8.727e-07	373.702027716	511.625104239
8.728e-07	335.012505566	487.469465461
8.729e-07	314.273496473	482.226375687
8.73e-07	272.463797649	490.330227368
8.731e-07	319.554569958	500.797807454
8.732e-07	305.725660587	462.069458629
8.733e-07	318.21752974	514.795513791
8.734e-07	321.262935778	472.613638265
8.735e-07	323.925740942	502.00444556
8.736e-07	348.102325655	488.201733041
8.737e-07	313.795527118	487.375613021
8.738e-07	329.018022102	431.515453769
8.739e-07	298.284426977	408.129642238
8.74e-07	257.310045461	462.254267526
8.741e-07	351.502305553	414.71919216
8.742e-07	348.107610584	448.647843538
8.743e-07	258.631836638	473.340373397
8.744e-07	297.007157838	428.571387925
8.745e-07	262.132728292	417.395003465
8.746e-07	294.024379058	488.870494663
8.747e-07	289.262136737	409.0303854
8.748e-07	342.064581755	432.63558161
8.749e-07	295.808437716	402.537514277
8.75e-07	243.742192734	402.4843622
8.751e-07	286.442367566	476.989109949
8.752e-07	322.114797428	440.894840194
8.753e-07	277.497899002	398.144283302
8.754e-07	252.042874297	413.441205221
8.755e-07	266.879935345	456.252837842
8.756e-07	286.028350031	455.470825234
8.757e-07	263.213838516	385.874293414
8.758e-07	258.0251362	378.128368383
8.759e-07	237.113306006	452.064814596
8.76e-07	292.324711307	395.4911141
8.761e-07	289.633706539	398.211603644
8.762e-07	270.81949346	422.758695384
8.763e-07	319.488799939	366.550496811
8.764e-07	221.939497662	378.034960274
8.765e-07	219.397839188	380.137266656
8.766e-07	303.438408915	395.157284531
8.767e-07	246.070801349	410.509652768
8.768e-07	279.60104204	393.75154331
8.769e-07	250.550432166	390.898249195
8.77e-07	297.640918226	346.329023944
8.771e-07	224.764597342	412.527706172
8.772e-07	225.791091741	404.585251631
8.773e-07	278.523295419	368.683807167
8.774e-07	278.474995277	430.347489236
8.775e-07	302.696012052	336.431299652
8.776e-07	279.652922728	401.919297645
8.777e-07	205.278126938	409.561237206
8.778e-07	280.513221727	345.434936532
8.779e-07	256.074854865	380.937824906
8.78e-07	294.589685421	373.346281862
8.781e-07	202.02008509	329.911072703
8.782e-07	274.683028177	346.782230565
8.783e-07	276.49556089	398.807171912
8.784e-07	256.210778048	317.466472283
8.785e-07	238.68460544	356.472221087
8.786e-07	226.409380653	321.798177375
8.787e-07	256.985791491	377.880479473
8.788e-07	239.744523449	354.912628229
8.789e-07	235.894507934	353.648516152
8.79e-07	255.693351048	310.628637233
8.791e-07	279.967450579	371.814256122
8.792e-07	242.216296004	397.012552954
8.793e-07	250.660141314	357.943724533
8.794e-07	228.772493068	372.06185784
8.795e-07	258.481266391	345.863244746
8.796e-07	203.100397693	373.806551286
8.797e-07	273.45596235	385.403428076
8.798e-07	181.01389471	374.897547518
8.799e-07	263.829941726	386.220112115
8.8e-07	225.320567922	318.177699535
8.801e-07	271.581945407	310.746548742
8.802e-07	210.467057292	331.621993023
8.803e-07	214.035878977	326.231226447
8.804e-07	254.802711304	315.767654744
8.805e-07	232.416885194	312.574903459
8.806e-07	232.236026129	305.492195673
8.807e-07	224.604335101	366.329722857
8.808e-07	173.650211595	310.52753033
8.809e-07	170.037665816	287.859783799
8.81e-07	191.530251345	342.099289957
8.811e-07	246.091439431	335.746768974
8.812e-07	195.515701553	313.003026037
8.813e-07	193.923151458	341.180063455
8.814e-07	246.198972258	292.478899941
8.815e-07	158.584260144	346.957457477
8.816e-07	198.924266006	272.232817248
8.817e-07	186.799707192	270.099456795
8.818e-07	155.510461867	329.337811549
8.819e-07	204.292954068	311.487377888
8.82e-07	251.599168848	262.997991177
8.821e-07	183.343468389	256.970321868
8.822e-07	223.643703205	265.413633646
8.823e-07	177.93023096	299.994320492
8.824e-07	155.556652105	335.776295894
8.825e-07	158.17695014	321.253207233
8.826e-07	151.358932096	302.693439391
8.827e-07	180.268264066	300.370210991
8.828e-07	238.603901954	270.93072471
8.829e-07	222.451245291	294.816412727
8.83e-07	196.208835784	258.225986961
8.831e-07	239.907199045	252.911693552
8.832e-07	206.270129541	283.813378689
8.833e-07	210.807616781	322.526611239
8.834e-07	183.945109173	297.255234757
8.835e-07	194.75060725	296.709135715
8.836e-07	150.985044316	244.819050976
8.837e-07	199.126223967	316.744972307
8.838e-07	213.76480875	247.680245835
8.839e-07	205.877919184	264.056731065
8.84e-07	156.834929891	249.626897176
8.841e-07	219.43810103	312.262165442
8.842e-07	198.255822816	289.775149562
8.843e-07	162.360269336	278.235464375
8.844e-07	162.342300708	304.951639185
8.845e-07	208.368351214	266.131639593
8.846e-07	221.520535382	258.195317174
8.847e-07	221.522655692	313.605043288
8.848e-07	215.881188815	234.672435015
8.849e-07	184.613589615	284.93497069
8.85e-07	194.448430778	265.825111289
8.851e-07	174.32725298	277.241904969
8.852e-07	123.031339065	307.032574823
8.853e-07	202.282632257	218.110989031
8.854e-07	129.058903132	242.716761235
8.855e-07	133.133322374	284.443072728
8.856e-07	203.411159885	228.022930399
8.857e-07	192.084837559	289.834593024
8.858e-07	187.561478284	266.941834086
8.859e-07	163.947761913	269.773227307
8.86e-07	190.962752889	279.920174233
8.861e-07	143.2734686	257.691229669
8.862e-07	147.732217397	250.149968734
8.863e-07	157.690014612	277.660449971
8.864e-07	130.469613501	222.932140213
8.865e-07	151.38441843	273.61161126
8.866e-07	144.815628967	261.324982425
8.867e-07	117.044251339	212.246058104
8.868e-07	190.896362784	269.542701997
8.869e-07	179.613157503	223.632578273
8.87e-07	176.050681983	198.493868683
8.871e-07	122.366701403	279.148860407
8.872e-07	194.226407627	201.777411863
8.873e-07	114.41192828	265.170748479
8.874e-07	132.97204946	240.553179173
8.875e-07	144.790972793	210.663038678
8.876e-07	121.249292451	221.845913248
8.877e-07	194.802150526	220.135363988
8.878e-07	121.388166936	232.597968763
8.879e-07	155.007543293	259.065954816
8.88e-07	108.382211643	239.057653304
8.881e-07	182.012730771	191.460725524
8.882e-07	122.892690564	216.01290054
8.883e-07	148.248755865	244.482601253
8.884e-07	179.851209339	186.863320691
8.885e-07	119.417892095	260.654738281
8.886e-07	123.071858834	242.375847739
8.887e-07	123.772343708	216.968554979
8.888e-07	148.923195627	245.359973653
8.889e-07	190.829360295	217.607888348
8.89e-07	118.235648335	235.301313565
8.891e-07	128.390223359	249.46828304
8.892e-07	116.102274969	175.793444431
8.893e-07	167.224651543	191.598210104
8.894e-07	131.907069375	200.80222562
8.895e-07	150.98579955	254.781821948
8.896e-07	169.009836029	225.378838733
8.897e-07	153.728707648	189.048428792
8.898e-07	149.98720425	244.436087057
8.899e-07	126.208492984	157.8705211
8.9e-07	123.738719606	182.37126543
8.901e-07	158.117012567	198.993288714
8.902e-07	91.3760397072	249.401537294
8.903e-07	119.05324361	179.454093397
8.904e-07	119.253706056	187.933749809
8.905e-07	183.812145831	208.101444006
8.906e-07	141.676100923	172.029055292
8.907e-07	147.914628831	214.235161474
8.908e-07	117.174499835	150.497158664
8.909e-07	135.705076405	171.438979538
8.91e-07	149.945420987	150.229169622
8.911e-07	104.089627698	239.507615089
8.912e-07	84.7225090507	214.665211564
8.913e-07	99.0894288818	225.550529442
8.914e-07	88.0973806627	230.217265149
8.915e-07	118.998475426	220.113563235
8.916e-07	99.3086317011	146.956556386
8.917e-07	78.4971873837	140.451534163
8.918e-07	165.66990888	196.081485176
8.919e-07	151.472056229	203.085476294
8.92e-07	159.681317412	160.154472875
8.921e-07	84.0538273942	228.914191951
8.922e-07	144.703186763	224.69689193
8.923e-07	141.001646903	196.224906403
8.924e-07	75.8937290006	139.080019029
8.925e-07	107.91603308	186.618242795
8.926e-07	137.732124515	193.931274698
8.927e-07	106.659174203	128.430317893
8.928e-07	160.746636787	179.26068874
8.929e-07	82.8302103151	136.603508987
8.93e-07	122.42675011	177.451290162
8.931e-07	95.6958892684	135.262243831
8.932e-07	95.499147591	207.353374191
8.933e-07	71.4173086818	134.86574854
8.934e-07	130.024945835	214.990965572
8.935e-07	151.170865194	156.065445596
8.936e-07	86.9433630543	217.00830587
8.937e-07	109.938645146	194.511058721
8.938e-07	70.4432497468	160.972832626
8.939e-07	94.8875067229	140.770367929
8.94e-07	113.269674597	145.785944038
8.941e-07	142.41902499	215.026550305
8.942e-07	67.2401629618	183.247105751
8.943e-07	111.265647025	124.394800951
8.944e-07	111.364496007	146.471148424
8.945e-07	69.9902719939	145.088946227
8.946e-07	86.4876982985	113.311104376
8.947e-07	67.6176022018	203.974484674
8.948e-07	129.450950684	194.157235286
8.949e-07	65.9214940612	189.148091657
8.95e-07	86.6034702494	152.958368238
8.951e-07	90.8250768113	111.625472361
8.952e-07	150.815568037	114.756106738
8.953e-07	138.792005129	183.348949787
8.954e-07	146.550702439	172.072981263
8.955e-07	80.6519557415	175.345925313
8.956e-07	151.558139786	130.288621022
8.957e-07	76.2026559379	154.152810447
8.958e-07	68.6418066595	161.208633556
8.959e-07	76.8776814104	200.084206999
8.96e-07	112.241783054	144.180925952
8.961e-07	77.1617463725	159.143941509
8.962e-07	101.432975759	109.857900858
8.963e-07	91.809542641	117.267957345
8.964e-07	68.4743281341	106.608619369
8.965e-07	141.950238428	142.334731256
8.966e-07	81.2082380721	137.629686835
8.967e-07	142.590364283	195.377034516
8.968e-07	135.889864174	128.863247907
8.969e-07	67.7564574047	127.090216624
8.97e-07	74.0476091454	112.261816141
8.971e-07	104.18438662	142.309032614
8.972e-07	145.691650508	186.153323941
8.973e-07	127.14971027	182.592155994
8.974e-07	132.008692856	111.741001708
8.975e-07	133.292609576	177.750688656
8.976e-07	136.029564914	150.56840645
8.977e-07	139.221110284	128.914956986
8.978e-07	133.810940986	102.270356484
8.979e-07	88.689520986	147.264168369
8.98e-07	66.5025122336	185.058765995
8.981e-07	118.550273094	119.432014619
8.982e-07	107.469634513	161.351413082
8.983e-07	97.7347047747	175.80092388
8.984e-07	53.7449526202	112.16974945
8.985e-07	94.5393058865	128.114392778
8.986e-07	122.69552205	160.540309803
8.987e-07	48.1637270397	165.068006094
8.988e-07	116.991553983	139.833464
8.989e-07	120.357775898	113.504351726
8.99e-07	117.375337487	92.7021591175
8.991e-07	107.501925627	128.698106446
8.992e-07	131.245622378	149.327748247
8.993e-07	83.1375005286	83.6157417398
8.994e-07	142.651117135	129.138867398
8.995e-07	94.3377185645	134.356745332
8.996e-07	48.1817099591	131.606580695
8.997e-07	98.9116662943	164.078263864
8.998e-07	108.023918186	98.700808923
8.999e-07	74.814797723	117.656665052
9e-07	119.251622294	137.169247153
9.001e-07	78.0385809955	98.362815383
9.002e-07	45.2310200337	160.397497174
9.003e-07	94.5963554354	159.758265436
9.004e-07	75.2282326846	131.33788438
9.005e-07	97.0998379943	159.766405271
9.006e-07	52.0723534333	113.167078312
9.007e-07	116.554189512	165.843579152
9.008e-07	128.943896261	148.252034368
9.009e-07	131.548590346	129.211246854
9.01e-07	126.344807143	90.7892979323
9.011e-07	97.8826533275	95.1045596099
9.012e-07	130.087271803	99.5066479113
9.013e-07	75.2875591237	93.7544397237
9.014e-07	74.4159241273	164.392374705
9.015e-07	128.721715566	109.257741591
9.016e-07	40.8816895481	97.2675210883
9.017e-07	51.5677210786	86.2988609032
9.018e-07	125.177764398	154.976049623
9.019e-07	85.0287473543	115.2947678
9.02e-07	74.5864710761	74.8040741167
9.021e-07	113.731700404	165.414485945
9.022e-07	53.5112969306	82.9831956971
9.023e-07	78.7488798023	134.983094543
9.024e-07	65.6761489514	72.1517944379
9.025e-07	104.794312898	121.080014771
9.026e-07	108.488727913	121.772589141
9.027e-07	50.1477007249	73.1866221176
9.028e-07	64.2842538958	121.302192797
9.029e-07	65.9503146874	91.2432749851
9.03e-07	63.4455438624	111.972514977
9.031e-07	124.20802228	121.34014787
9.032e-07	80.6038585206	146.82218076
9.033e-07	71.7549116301	137.794715
9.034e-07	66.7785821742	130.408290304
9.035e-07	126.294713054	90.7506386431
9.036e-07	108.130276814	93.5496515135
9.037e-07	46.5117249519	118.06663594
9.038e-07	33.5051522368	133.004200672
9.039e-07	47.9027254039	83.7261055769
9.04e-07	34.4157380452	127.926926444
9.041e-07	108.426675275	85.8330405816
9.042e-07	92.1624613356	56.8562403839
9.043e-07	75.269233595	137.296620638
9.044e-07	83.2254549368	97.2565942118
9.045e-07	52.549305308	85.010479138
9.046e-07	43.6836855469	107.824606684
9.047e-07	112.994669056	110.354794436
